% 1d
% 2022_04_30_041_darkscan.
%  179
% Energy (eV)    sum:    0.02 to    0.78 um
       270.00000        43.2564
       272.00000        41.1026
       274.00000        42.8205
       276.00000        43.4872
       278.00000        42.2564
       280.00000        42.4103
       280.25000        44.8205
       280.75000        41.2308
       281.25000        43.3077
       281.75000        43.3077
       282.25000        41.8718
       282.75000        41.8205
       283.25000        41.1538
       283.50000        42.3846
       283.55000        42.3590
       283.60000        41.6923
       283.65000        41.7436
       283.70000        42.9231
       283.75000        43.3333
       283.80000        41.5897
       283.85000        40.6410
       283.90000        40.3590
       283.95000        41.4872
       284.00000        40.5128
       284.05000        42.3846
       284.10000        42.1282
       284.15000        42.0256
       284.20000        40.2564
       284.25000        42.1538
       284.30000        42.1795
       284.35000        44.0769
       284.40000        38.7436
       284.45000        42.0256
       284.50000        40.9231
       284.55000        42.9744
       284.60000        42.0513
       284.65000        42.3333
       284.70000        40.2821
       284.75000        42.7436
       284.80000        42.2564
       284.85000        40.3333
       284.90000        42.7179
       284.95000        41.3333
       285.00000        40.8462
       285.05000        39.5385
       285.10000        43.7436
       285.15000        42.7179
       285.20000        41.0513
       285.25000        40.7436
       285.30000        41.1026
       285.35000        42.1538
       285.40000        42.5128
       285.45000        42.1026
       285.50000        39.8205
       285.55000        43.2821
       285.60000        40.8462
       285.65000        42.5641
       285.70000        42.3077
       285.75000        40.0256
       285.80000        42.4359
       285.85000        41.4872
       285.90000        42.5385
       285.95000        41.9744
       286.00000        41.5641
       286.05000        40.9231
       286.10000        42.1795
       286.15000        41.3077
       286.20000        41.6667
       286.25000        42.4615
       286.30000        40.6410
       286.35000        40.9231
       286.40000        40.9487
       286.45000        40.7179
       286.50000        39.6923
       286.55000        39.7436
       286.60000        41.4359
       286.65000        39.6923
       286.70000        41.9744
       286.75000        42.6667
       286.80000        41.6923
       286.85000        42.0000
       286.90000        41.4103
       286.95000        40.6154
       287.00000        41.2821
       287.05000        42.3846
       287.10000        41.3077
       287.15000        44.3846
       287.20000        41.0769
       287.25000        41.6667
       287.30000        41.9744
       287.35000        39.8462
       287.40000        40.5128
       287.45000        42.0513
       287.50000        42.1795
       287.55000        40.6154
       287.60000        39.2308
       287.65000        40.0513
       287.70000        41.1538
       287.75000        40.1026
       287.80000        41.0256
       287.85000        39.6923
       287.90000        41.5897
       287.95000        41.4103
       288.00000        40.8718
       288.05000        40.0256
       288.10000        41.4359
       288.15000        42.4103
       288.20000        40.7179
       288.25000        40.6667
       288.30000        39.4615
       288.35000        40.1026
       288.40000        40.2821
       288.45000        40.5641
       288.50000        42.6667
       288.55000        41.5897
       288.60000        41.8205
       288.65000        41.4872
       288.70000        41.0000
       288.75000        40.0256
       288.80000        41.6410
       288.85000        42.9231
       288.90000        40.7436
       288.95000        39.9231
       289.00000        40.4872
       289.25000        40.8462
       289.50000        41.8462
       289.75000        41.6410
       290.00000        39.7949
       290.25000        40.1795
       290.50000        41.8205
       290.75000        40.8974
       291.00000        40.5641
       291.25000        40.9231
       291.50000        39.6154
       291.75000        40.0769
       292.00000        39.8462
       292.25000        40.4103
       292.50000        40.8462
       292.75000        42.5897
       293.00000        41.8974
       293.25000        39.2564
       293.50000        40.6154
       293.75000        40.7179
       294.00000        39.1538
       294.50000        41.1026
       295.00000        39.6410
       295.50000        41.3846
       296.00000        39.4615
       296.50000        41.4615
       297.00000        41.2821
       297.50000        41.8718
       298.00000        39.8718
       298.50000        41.1538
       299.00000        40.8718
       299.50000        39.0769
       300.00000        39.0256
       300.50000        40.4872
       301.00000        43.2308
       302.00000        40.4103
       303.00000        40.7949
       304.00000        42.8205
       305.00000        41.0000
       306.00000        41.2308
       307.00000        41.6923
       308.00000        40.1026
       309.00000        40.8974
       310.00000        41.5641
       311.00000        43.4103
       312.00000        40.3077
       313.00000        41.0513
       314.00000        40.2308
       315.00000        42.5641
       320.00000        42.2564
       325.00000        40.3846
       330.00000        41.5897
       335.00000        41.4359
       340.00000        42.3590
       345.00000        41.3077
       350.00000        41.0513
